 Be Density=1.848 Thickness=125. microns
 Photon Energy (eV), Transmission
    10.000      0.00000    
    19.900      0.00000    
    29.800      0.00000    
    39.700      0.00000    
    49.600      0.00000    
    59.500      0.00000    
    69.400      0.00000    
    79.300      0.00000    
    89.200      0.00000    
    99.100      0.00000    
    109.00      0.00000    
    118.90      0.00000    
    128.80      0.00000    
    138.70      0.00000    
    148.60      0.00000    
    158.50      0.00000    
    168.40      0.00000    
    178.30      0.00000    
    188.20      0.00000    
    198.10      0.00000    
    208.00      0.00000    
    217.90      0.00000    
    227.80      0.00000    
    237.70      0.00000    
    247.60      0.00000    
    257.50      0.00000    
    267.40      0.00000    
    277.30      0.00000    
    287.20      0.00000    
    297.10      0.00000    
    307.00      0.00000    
    316.90      0.00000    
    326.80      0.00000    
    336.70      0.00000    
    346.60      0.00000    
    356.50      0.00000    
    366.40      0.00000    
    376.30      0.00000    
    386.20      0.00000    
    396.10      0.00000    
    406.00      0.00000    
    415.90      0.00000    
    425.80      0.00000    
    435.70      0.00000    
    445.60      0.00000    
    455.50      0.00000    
    465.40      0.00000    
    475.30      0.00000    
    485.20      0.00000    
    495.10      0.00000    
    505.00      0.14013E-43
    514.90      0.29792E-41
    524.80      0.43172E-39
    534.70      0.44320E-37
    544.60      0.33207E-35
    554.50      0.18636E-33
    564.40      0.82744E-32
    574.30      0.30387E-30
    584.20      0.88392E-29
    594.10      0.20752E-27
    604.00      0.39995E-26
    613.90      0.64245E-25
    623.80      0.87211E-24
    633.70      0.10133E-22
    643.60      0.11002E-21
    653.50      0.10941E-20
    663.40      0.94899E-20
    673.30      0.69526E-19
    683.20      0.41504E-18
    693.10      0.21043E-17
    703.00      0.98729E-17
    712.90      0.46823E-16
    722.80      0.20461E-15
    732.70      0.84356E-15
    742.60      0.32510E-14
    752.50      0.11692E-13
    762.40      0.39404E-13
    772.30      0.12496E-12
    782.20      0.37432E-12
    792.10      0.10629E-11
    802.00      0.28696E-11
    811.90      0.73889E-11
    821.80      0.18199E-10
    831.70      0.42988E-10
    841.60      0.97604E-10
    851.50      0.21348E-09
    861.40      0.45080E-09
    871.30      0.92084E-09
    881.20      0.18215E-08
    891.10      0.34878E-08
    901.00      0.64949E-08
    910.90      0.11780E-07
    920.80      0.20843E-07
    930.70      0.36011E-07
    940.60      0.60978E-07
    950.50      0.10157E-06
    960.40      0.16572E-06
    970.30      0.26512E-06
    980.20      0.41624E-06
    990.10      0.64205E-06
    1000.0      0.97379E-06
